16km altitude
   alt.[km]     year     month       day      hour  SZA[deg]         o2-vmr         ox-vmr          o-vmr         o3-vmr    [o2][cm^-3]   [ox][1/cm^3]    [o][1/cm^3]   [o3][1/cm^3]      topo3[DU]
      16.      2000         1         1     12.00     63.05     0.2098E+00     0.1889E-12     0.4175E-19     0.1889E-12     0.6880E+18     0.6196E+06     0.1369E+00     0.6196E+06     0.4723E-02
      16.      2001         1         1     12.00     62.99     0.2098E+00     0.2188E-08     0.4801E-15     0.2188E-08     0.6880E+18     0.7177E+10     0.1575E+04     0.7177E+10     0.6290E+01
      16.      2002         1         1     12.00     63.01     0.2098E+00     0.4145E-08     0.9024E-15     0.4145E-08     0.6880E+18     0.1360E+11     0.2960E+04     0.1360E+11     0.1181E+02
      16.      2003         1         1     12.00     63.03     0.2098E+00     0.5920E-08     0.1280E-14     0.5920E-08     0.6880E+18     0.1942E+11     0.4198E+04     0.1942E+11     0.1669E+02
      16.      2004         1         1     12.00     63.05     0.2098E+00     0.7547E-08     0.1622E-14     0.7547E-08     0.6880E+18     0.2475E+11     0.5320E+04     0.2475E+11     0.2104E+02
      16.      2005         1         1     12.00     62.99     0.2098E+00     0.9052E-08     0.1937E-14     0.9052E-08     0.6880E+18     0.2969E+11     0.6354E+04     0.2969E+11     0.2497E+02
      16.      2006         1         1     12.00     63.01     0.2098E+00     0.1046E-07     0.2226E-14     0.1046E-07     0.6880E+18     0.3429E+11     0.7301E+04     0.3429E+11     0.2856E+02
      16.      2007         1         1     12.00     63.03     0.2098E+00     0.1177E-07     0.2494E-14     0.1177E-07     0.6880E+18     0.3861E+11     0.8181E+04     0.3861E+11     0.3186E+02
      16.      2008         1         1     12.00     63.05     0.2098E+00     0.1301E-07     0.2745E-14     0.1301E-07     0.6880E+18     0.4267E+11     0.9002E+04     0.4267E+11     0.3493E+02
      16.      2009         1         1     12.00     62.98     0.2098E+00     0.1418E-07     0.2983E-14     0.1418E-07     0.6880E+18     0.4651E+11     0.9785E+04     0.4651E+11     0.3780E+02
      16.      2010         1         1     12.00     63.00     0.2098E+00     0.1529E-07     0.3205E-14     0.1529E-07     0.6880E+18     0.5016E+11     0.1051E+05     0.5016E+11     0.4049E+02
      16.      2011         1         1     12.00     63.02     0.2098E+00     0.1635E-07     0.3414E-14     0.1635E-07     0.6880E+18     0.5364E+11     0.1120E+05     0.5364E+11     0.4303E+02
      16.      2012         1         1     12.00     63.04     0.2098E+00     0.1736E-07     0.3612E-14     0.1736E-07     0.6880E+18     0.5695E+11     0.1185E+05     0.5695E+11     0.4544E+02
      16.      2013         1         1     12.00     62.98     0.2098E+00     0.1833E-07     0.3806E-14     0.1833E-07     0.6880E+18     0.6013E+11     0.1248E+05     0.6013E+11     0.4773E+02
      16.      2014         1         1     12.00     63.00     0.2098E+00     0.1926E-07     0.3985E-14     0.1926E-07     0.6880E+18     0.6317E+11     0.1307E+05     0.6317E+11     0.4992E+02
      16.      2015         1         1     12.00     63.02     0.2098E+00     0.2015E-07     0.4157E-14     0.2015E-07     0.6880E+18     0.6610E+11     0.1363E+05     0.6610E+11     0.5201E+02
      16.      2016         1         1     12.00     63.04     0.2098E+00     0.2101E-07     0.4321E-14     0.2101E-07     0.6880E+18     0.6891E+11     0.1417E+05     0.6891E+11     0.5401E+02
      16.      2017         1         1     12.00     62.98     0.2098E+00     0.2184E-07     0.4484E-14     0.2184E-07     0.6880E+18     0.7162E+11     0.1471E+05     0.7162E+11     0.5593E+02
      16.      2018         1         1     12.00     63.00     0.2098E+00     0.2264E-07     0.4635E-14     0.2264E-07     0.6880E+18     0.7424E+11     0.1520E+05     0.7424E+11     0.5777E+02
      16.      2019         1         1     12.00     63.02     0.2098E+00     0.2341E-07     0.4780E-14     0.2341E-07     0.6880E+18     0.7678E+11     0.1568E+05     0.7678E+11     0.5955E+02
      16.      2020         1         1     12.00     63.04     0.2098E+00     0.2415E-07     0.4920E-14     0.2415E-07     0.6880E+18     0.7923E+11     0.1614E+05     0.7923E+11     0.6127E+02
      16.      2021         1         1     12.00     62.98     0.2098E+00     0.2488E-07     0.5061E-14     0.2488E-07     0.6880E+18     0.8160E+11     0.1660E+05     0.8160E+11     0.6293E+02
      16.      2022         1         1     12.00     63.00     0.2098E+00     0.2558E-07     0.5191E-14     0.2558E-07     0.6880E+18     0.8390E+11     0.1703E+05     0.8390E+11     0.6453E+02
      16.      2023         1         1     12.00     63.02     0.2098E+00     0.2626E-07     0.5317E-14     0.2626E-07     0.6880E+18     0.8614E+11     0.1744E+05     0.8614E+11     0.6609E+02
      16.      2024         1         1     12.00     63.04     0.2098E+00     0.2693E-07     0.5438E-14     0.2693E-07     0.6880E+18     0.8832E+11     0.1784E+05     0.8832E+11     0.6759E+02
      16.      2025         1         1     12.00     62.97     0.2098E+00     0.2757E-07     0.5563E-14     0.2757E-07     0.6880E+18     0.9043E+11     0.1825E+05     0.9043E+11     0.6905E+02
      16.      2026         1         1     12.00     63.00     0.2098E+00     0.2820E-07     0.5677E-14     0.2820E-07     0.6880E+18     0.9249E+11     0.1862E+05     0.9249E+11     0.7047E+02
      16.      2027         1         1     12.00     63.02     0.2098E+00     0.2881E-07     0.5788E-14     0.2881E-07     0.6880E+18     0.9450E+11     0.1898E+05     0.9450E+11     0.7185E+02
      16.      2028         1         1     12.00     63.03     0.2098E+00     0.2941E-07     0.5895E-14     0.2941E-07     0.6880E+18     0.9645E+11     0.1934E+05     0.9645E+11     0.7320E+02
      16.      2029         1         1     12.00     62.97     0.2098E+00     0.2999E-07     0.6007E-14     0.2999E-07     0.6880E+18     0.9836E+11     0.1970E+05     0.9836E+11     0.7450E+02
      16.      2030         1         1     12.00     62.99     0.2098E+00     0.3056E-07     0.6109E-14     0.3056E-07     0.6880E+18     0.1002E+12     0.2004E+05     0.1002E+12     0.7578E+02
      16.      2031         1         1     12.00     63.01     0.2098E+00     0.3111E-07     0.6207E-14     0.3111E-07     0.6880E+18     0.1020E+12     0.2036E+05     0.1020E+12     0.7702E+02
      16.      2032         1         1     12.00     63.03     0.2098E+00     0.3165E-07     0.6303E-14     0.3165E-07     0.6880E+18     0.1038E+12     0.2068E+05     0.1038E+12     0.7823E+02
      16.      2033         1         1     12.00     62.97     0.2098E+00     0.3218E-07     0.6405E-14     0.3218E-07     0.6880E+18     0.1056E+12     0.2101E+05     0.1056E+12     0.7942E+02
      16.      2034         1         1     12.00     62.99     0.2098E+00     0.3270E-07     0.6496E-14     0.3270E-07     0.6880E+18     0.1073E+12     0.2131E+05     0.1073E+12     0.8057E+02
      16.      2035         1         1     12.00     63.01     0.2098E+00     0.3321E-07     0.6585E-14     0.3321E-07     0.6880E+18     0.1089E+12     0.2160E+05     0.1089E+12     0.8171E+02
      16.      2036         1         1     12.00     63.03     0.2098E+00     0.3371E-07     0.6672E-14     0.3371E-07     0.6880E+18     0.1106E+12     0.2188E+05     0.1106E+12     0.8281E+02
      16.      2037         1         1     12.00     62.97     0.2098E+00     0.3420E-07     0.6765E-14     0.3420E-07     0.6880E+18     0.1122E+12     0.2219E+05     0.1122E+12     0.8389E+02
      16.      2038         1         1     12.00     62.99     0.2098E+00     0.3467E-07     0.6848E-14     0.3467E-07     0.6880E+18     0.1137E+12     0.2246E+05     0.1137E+12     0.8495E+02
      16.      2039         1         1     12.00     63.01     0.2098E+00     0.3514E-07     0.6929E-14     0.3514E-07     0.6880E+18     0.1153E+12     0.2273E+05     0.1153E+12     0.8599E+02
      16.      2040         1         1     12.00     63.03     0.2098E+00     0.3560E-07     0.7008E-14     0.3560E-07     0.6880E+18     0.1168E+12     0.2299E+05     0.1168E+12     0.8701E+02
      16.      2041         1         1     12.00     62.96     0.2098E+00     0.3606E-07     0.7094E-14     0.3606E-07     0.6880E+18     0.1183E+12     0.2327E+05     0.1183E+12     0.8801E+02
      16.      2042         1         1     12.00     62.99     0.2098E+00     0.3650E-07     0.7170E-14     0.3650E-07     0.6880E+18     0.1197E+12     0.2352E+05     0.1197E+12     0.8899E+02
      16.      2043         1         1     12.00     63.01     0.2098E+00     0.3693E-07     0.7244E-14     0.3693E-07     0.6880E+18     0.1211E+12     0.2376E+05     0.1211E+12     0.8995E+02
      16.      2044         1         1     12.00     63.03     0.2098E+00     0.3736E-07     0.7316E-14     0.3736E-07     0.6880E+18     0.1225E+12     0.2400E+05     0.1225E+12     0.9089E+02
      16.      2045         1         1     12.00     62.96     0.2098E+00     0.3778E-07     0.7396E-14     0.3778E-07     0.6880E+18     0.1239E+12     0.2426E+05     0.1239E+12     0.9182E+02
      16.      2046         1         1     12.00     62.98     0.2098E+00     0.3819E-07     0.7466E-14     0.3819E-07     0.6880E+18     0.1253E+12     0.2449E+05     0.1253E+12     0.9273E+02
      16.      2047         1         1     12.00     63.00     0.2098E+00     0.3860E-07     0.7534E-14     0.3860E-07     0.6880E+18     0.1266E+12     0.2471E+05     0.1266E+12     0.9363E+02
      16.      2048         1         1     12.00     63.02     0.2098E+00     0.3900E-07     0.7601E-14     0.3900E-07     0.6880E+18     0.1279E+12     0.2493E+05     0.1279E+12     0.9451E+02
      16.      2049         1         1     12.00     62.96     0.2098E+00     0.3939E-07     0.7676E-14     0.3939E-07     0.6880E+18     0.1292E+12     0.2518E+05     0.1292E+12     0.9537E+02
