65km altitude
   alt.[km]     year     month       day      hour  SZA[deg]         o2-vmr         ox-vmr          o-vmr         o3-vmr    [o2][cm^-3]   [ox][1/cm^3]    [o][1/cm^3]   [o3][1/cm^3]      topo3[DU]
      65.      2000         1         1     12.00     63.05     0.2095E+00     0.2132E-08     0.1529E-08     0.6031E-09     0.8190E+15     0.8337E+07     0.5979E+07     0.2358E+07     0.4498E-04
      65.      2001         1         1     12.00     62.99     0.2095E+00     0.2177E-05     0.1552E-05     0.6251E-06     0.8190E+15     0.8511E+10     0.6066E+10     0.2444E+10     0.4798E-01
      65.      2002         1         1     12.00     63.01     0.2095E+00     0.4224E-05     0.2993E-05     0.1232E-05     0.8190E+15     0.1652E+11     0.1170E+11     0.4815E+10     0.9523E-01
      65.      2003         1         1     12.00     63.03     0.2095E+00     0.6098E-05     0.4294E-05     0.1804E-05     0.8190E+15     0.2384E+11     0.1679E+11     0.7054E+10     0.1412E+00
      65.      2004         1         1     12.00     63.05     0.2095E+00     0.7765E-05     0.5436E-05     0.2330E-05     0.8190E+15     0.3036E+11     0.2125E+11     0.9109E+10     0.1852E+00
      65.      2005         1         1     12.00     62.99     0.2095E+00     0.9212E-05     0.6412E-05     0.2800E-05     0.8190E+15     0.3602E+11     0.2507E+11     0.1095E+11     0.2269E+00
      65.      2006         1         1     12.00     63.01     0.2095E+00     0.1044E-04     0.7224E-05     0.3211E-05     0.8190E+15     0.4080E+11     0.2825E+11     0.1256E+11     0.2659E+00
      65.      2007         1         1     12.00     63.03     0.2095E+00     0.1145E-04     0.7888E-05     0.3565E-05     0.8190E+15     0.4478E+11     0.3084E+11     0.1394E+11     0.3021E+00
      65.      2008         1         1     12.00     63.05     0.2095E+00     0.1229E-04     0.8420E-05     0.3866E-05     0.8190E+15     0.4804E+11     0.3292E+11     0.1512E+11     0.3357E+00
      65.      2009         1         1     12.00     62.98     0.2095E+00     0.1296E-04     0.8842E-05     0.4117E-05     0.8190E+15     0.5067E+11     0.3457E+11     0.1610E+11     0.3666E+00
      65.      2010         1         1     12.00     63.00     0.2095E+00     0.1350E-04     0.9169E-05     0.4328E-05     0.8190E+15     0.5277E+11     0.3585E+11     0.1692E+11     0.3950E+00
      65.      2011         1         1     12.00     63.02     0.2095E+00     0.1392E-04     0.9418E-05     0.4504E-05     0.8190E+15     0.5444E+11     0.3683E+11     0.1761E+11     0.4213E+00
      65.      2012         1         1     12.00     63.04     0.2095E+00     0.1426E-04     0.9606E-05     0.4650E-05     0.8190E+15     0.5574E+11     0.3756E+11     0.1818E+11     0.4454E+00
      65.      2013         1         1     12.00     62.98     0.2095E+00     0.1452E-04     0.9747E-05     0.4770E-05     0.8190E+15     0.5676E+11     0.3811E+11     0.1865E+11     0.4673E+00
      65.      2014         1         1     12.00     63.00     0.2095E+00     0.1472E-04     0.9848E-05     0.4872E-05     0.8190E+15     0.5755E+11     0.3850E+11     0.1905E+11     0.4876E+00
      65.      2015         1         1     12.00     63.02     0.2095E+00     0.1488E-04     0.9919E-05     0.4957E-05     0.8190E+15     0.5817E+11     0.3878E+11     0.1938E+11     0.5062E+00
      65.      2016         1         1     12.00     63.04     0.2095E+00     0.1500E-04     0.9967E-05     0.5029E-05     0.8190E+15     0.5864E+11     0.3897E+11     0.1967E+11     0.5233E+00
      65.      2017         1         1     12.00     62.98     0.2095E+00     0.1509E-04     0.1000E-04     0.5088E-05     0.8190E+15     0.5899E+11     0.3910E+11     0.1989E+11     0.5387E+00
      65.      2018         1         1     12.00     63.00     0.2095E+00     0.1516E-04     0.1002E-04     0.5140E-05     0.8190E+15     0.5927E+11     0.3917E+11     0.2010E+11     0.5530E+00
      65.      2019         1         1     12.00     63.02     0.2095E+00     0.1521E-04     0.1003E-04     0.5186E-05     0.8190E+15     0.5948E+11     0.3920E+11     0.2028E+11     0.5661E+00
      65.      2020         1         1     12.00     63.04     0.2095E+00     0.1525E-04     0.1003E-04     0.5226E-05     0.8190E+15     0.5964E+11     0.3920E+11     0.2043E+11     0.5780E+00
      65.      2021         1         1     12.00     62.98     0.2095E+00     0.1528E-04     0.1003E-04     0.5256E-05     0.8190E+15     0.5975E+11     0.3920E+11     0.2055E+11     0.5885E+00
      65.      2022         1         1     12.00     63.00     0.2095E+00     0.1530E-04     0.1002E-04     0.5287E-05     0.8190E+15     0.5984E+11     0.3917E+11     0.2067E+11     0.5983E+00
      65.      2023         1         1     12.00     63.02     0.2095E+00     0.1532E-04     0.1001E-04     0.5314E-05     0.8190E+15     0.5991E+11     0.3913E+11     0.2078E+11     0.6073E+00
      65.      2024         1         1     12.00     63.04     0.2095E+00     0.1533E-04     0.9996E-05     0.5337E-05     0.8190E+15     0.5995E+11     0.3908E+11     0.2087E+11     0.6154E+00
      65.      2025         1         1     12.00     62.97     0.2095E+00     0.1534E-04     0.9987E-05     0.5354E-05     0.8190E+15     0.5998E+11     0.3905E+11     0.2093E+11     0.6222E+00
      65.      2026         1         1     12.00     63.00     0.2095E+00     0.1535E-04     0.9975E-05     0.5372E-05     0.8190E+15     0.6001E+11     0.3900E+11     0.2101E+11     0.6288E+00
      65.      2027         1         1     12.00     63.02     0.2095E+00     0.1535E-04     0.9962E-05     0.5389E-05     0.8190E+15     0.6002E+11     0.3895E+11     0.2107E+11     0.6348E+00
      65.      2028         1         1     12.00     63.03     0.2095E+00     0.1535E-04     0.9950E-05     0.5403E-05     0.8190E+15     0.6003E+11     0.3890E+11     0.2113E+11     0.6401E+00
      65.      2029         1         1     12.00     62.97     0.2095E+00     0.1535E-04     0.9942E-05     0.5412E-05     0.8190E+15     0.6003E+11     0.3887E+11     0.2116E+11     0.6444E+00
      65.      2030         1         1     12.00     62.99     0.2095E+00     0.1535E-04     0.9931E-05     0.5424E-05     0.8190E+15     0.6004E+11     0.3883E+11     0.2121E+11     0.6487E+00
      65.      2031         1         1     12.00     63.01     0.2095E+00     0.1536E-04     0.9921E-05     0.5434E-05     0.8190E+15     0.6004E+11     0.3879E+11     0.2125E+11     0.6526E+00
      65.      2032         1         1     12.00     63.03     0.2095E+00     0.1535E-04     0.9911E-05     0.5444E-05     0.8190E+15     0.6004E+11     0.3875E+11     0.2128E+11     0.6561E+00
      65.      2033         1         1     12.00     62.97     0.2095E+00     0.1535E-04     0.9906E-05     0.5447E-05     0.8190E+15     0.6003E+11     0.3873E+11     0.2130E+11     0.6587E+00
      65.      2034         1         1     12.00     62.99     0.2095E+00     0.1535E-04     0.9898E-05     0.5455E-05     0.8190E+15     0.6003E+11     0.3870E+11     0.2133E+11     0.6615E+00
      65.      2035         1         1     12.00     63.01     0.2095E+00     0.1535E-04     0.9890E-05     0.5462E-05     0.8190E+15     0.6003E+11     0.3867E+11     0.2136E+11     0.6640E+00
      65.      2036         1         1     12.00     63.03     0.2095E+00     0.1535E-04     0.9883E-05     0.5468E-05     0.8190E+15     0.6002E+11     0.3864E+11     0.2138E+11     0.6662E+00
      65.      2037         1         1     12.00     62.97     0.2095E+00     0.1535E-04     0.9881E-05     0.5468E-05     0.8190E+15     0.6002E+11     0.3864E+11     0.2138E+11     0.6676E+00
      65.      2038         1         1     12.00     62.99     0.2095E+00     0.1535E-04     0.9875E-05     0.5474E-05     0.8190E+15     0.6001E+11     0.3861E+11     0.2140E+11     0.6694E+00
      65.      2039         1         1     12.00     63.01     0.2095E+00     0.1535E-04     0.9870E-05     0.5479E-05     0.8190E+15     0.6001E+11     0.3859E+11     0.2142E+11     0.6711E+00
      65.      2040         1         1     12.00     63.03     0.2095E+00     0.1535E-04     0.9865E-05     0.5483E-05     0.8190E+15     0.6001E+11     0.3857E+11     0.2144E+11     0.6725E+00
      65.      2041         1         1     12.00     62.96     0.2095E+00     0.1535E-04     0.9864E-05     0.5481E-05     0.8190E+15     0.6000E+11     0.3857E+11     0.2143E+11     0.6732E+00
      65.      2042         1         1     12.00     62.99     0.2095E+00     0.1535E-04     0.9860E-05     0.5485E-05     0.8190E+15     0.6000E+11     0.3855E+11     0.2145E+11     0.6744E+00
      65.      2043         1         1     12.00     63.01     0.2095E+00     0.1534E-04     0.9856E-05     0.5489E-05     0.8190E+15     0.6000E+11     0.3854E+11     0.2146E+11     0.6755E+00
      65.      2044         1         1     12.00     63.03     0.2095E+00     0.1534E-04     0.9852E-05     0.5492E-05     0.8190E+15     0.6000E+11     0.3852E+11     0.2147E+11     0.6764E+00
      65.      2045         1         1     12.00     62.96     0.2095E+00     0.1534E-04     0.9854E-05     0.5489E-05     0.8190E+15     0.5999E+11     0.3853E+11     0.2146E+11     0.6766E+00
      65.      2046         1         1     12.00     62.98     0.2095E+00     0.1534E-04     0.9851E-05     0.5492E-05     0.8190E+15     0.5999E+11     0.3852E+11     0.2147E+11     0.6774E+00
      65.      2047         1         1     12.00     63.00     0.2095E+00     0.1534E-04     0.9848E-05     0.5495E-05     0.8190E+15     0.5999E+11     0.3850E+11     0.2148E+11     0.6782E+00
      65.      2048         1         1     12.00     63.02     0.2095E+00     0.1534E-04     0.9845E-05     0.5497E-05     0.8190E+15     0.5999E+11     0.3849E+11     0.2149E+11     0.6788E+00
      65.      2049         1         1     12.00     62.96     0.2095E+00     0.1534E-04     0.9847E-05     0.5494E-05     0.8190E+15     0.5998E+11     0.3850E+11     0.2148E+11     0.6787E+00
